#Uf/V, If/A, Ua/V, Ia/uA
#=======================
0.883123    1.925325    -4.9800    0.001696321970e-6
0.883488    1.925319    -4.4800    0.000820884278e-6
0.883807    1.925484    -3.9800    0.001979993220e-6
4.883779    1.925364    -3.4800    0.000695069740e-6
4.895467    1.925421    -2.9860    0.002778742240e-6
4.894401    1.925446    -2.5868    0.001034422410e-6
4.892779    1.925308    -2.0886    0.002424937900e-6
4.892842    1.925364    -1.5900    0.003126497810e-6
4.890825    1.925364    -1.2914    0.002434125500e-6
4.890731    1.925315    -0.9920    0.006336452380e-6
4.889616    1.925386    -0.7430    0.014876277600e-6
4.890457    1.925407    -0.4930    0.039544411700e-6
4.893290    1.925336    -0.2448    0.110674518000e-6
4.892762    1.925304    -0.0464    0.245861601000e-6
4.891189    1.925368    0.24400    0.537609363000e-6
4.890870    1.925432    0.49300    0.831933021000e-6
4.890825    1.925432    0.74260    1.253534580000e-6
4.890658    1.925311    0.99180    1.927838610000e-6
4.890238    1.925340    1.24100    2.690637130000e-6
4.890512    1.925375    1.49000    3.607877980000e-6
4.889873    1.925379    1.73900    4.634898410000e-6
4.889616    1.925368    1.98800    5.761073860000e-6
4.889613    1.925304    2.23700    7.004758920000e-6
4.889231    1.925407    2.48700    8.326101940000e-6
4.888227    1.925410    2.73600    9.703739860000e-6
4.888658    1.925400    2.98500    11.22910550000e-6
4.887769    1.925428    3.23400    12.46140040000e-6
4.888206    1.925400    3.48320    13.86480880000e-6
4.887446    1.925421    3.63080    15.05845710000e-6
4.887210    1.925446    4.00000    16.36052460000e-6
4.887648    1.925449    4.23000    17.45127700000e-6
4.886630    1.925421    4.43000    18.21521160000e-6
4.885588    1.925453    4.73000    19.26955280000e-6
4.886050    1.925502    4.98000    20.16783390000e-6
4.885804    1.925311    5.23000    21.11657040000e-6
4.885644    1.925463    5.48000    21.92036180000e-6
4.885685    1.925407    5.73000    22.77770150000e-6
4.885307    1.925467    5.98000    23.58821670000e-6
4.885252    1.925410    6.48000    24.96844050000e-6
4.885540    1.925340    6.73000    25.83113450000e-6
4.885276    1.925403    6.93000    26.40135970000e-6
4.885182    1.925396    7.47600    27.51484060000e-6
4.884908    1.925396    7.88000    28.56349880000e-6
4.884602    1.925343    8.47000    29.48816950000e-6
4.883963    1.925410    8.87000    30.31206980000e-6
4.884859    1.925484    9.47000    31.04961530000e-6
4.884095    1.925386    9.97000    31.67605470000e-6
4.882741    1.925438    10.3700    32.23003870000e-6
4.882241    1.925393    10.9700    32.71228370000e-6
4.882331    1.925361    11.4700    33.13100630000e-6
4.881842    1.925322    11.8700    33.49345020000e-6
4.882269    1.925449    12.3700    33.80297000000e-6
4.882213    1.925297    12.9680    34.05275910000e-6
4.881703    1.925368    13.9600    34.49146550000e-6
4.881574    1.925396    14.9600    34.85052910000e-6
4.881598    1.925322    15.9600    35.13990870000e-6
4.881272    1.925375    16.7600    35.37616480000e-6
4.881671    1.925354    17.9580    35.56724360000e-6
4.881522    1.925516    18.9500    35.73975940000e-6
4.881581    1.925396    19.7500    35.87976470000e-6
4.881696    1.925393    30.6000    36.78528970000e-6
4.881863    1.925520    40.3000    37.18710990000e-6
4.881644    1.925460    48.3000    37.60996090000e-6
4.881970    1.925467    60.2000    37.89237620000e-6
4.881335    1.925470    70.0000    38.12744420000e-6
4.881533    1.925428    79.9200    38.34720060000e-6
4.881564    1.925336    89.7000    38.52329210000e-6
4.880977    1.925414    97.6200    38.68565120000e-6
4.881341    1.925495    120.160    39.05100970000e-6
4.881005    1.925456    150.000    39.34859740000e-6
4.880741    1.925336    174.600    39.60762940000e-6
4.880529    1.925421    200.300    39.84931410000e-6
4.881064    1.925372    224.960    40.00454600000e-6
4.881088    1.925442    249.600    40.25748330000e-6
4.880887    1.925499    274.300    40.43769720000e-6
4.880612    1.925463    300.900    40.62230300000e-6
4.880755    1.925294    325.600    40.78619790000e-6
4.880679    1.925333    349.260    40.93105450000e-6
4.880946    1.925382    374.900    41.08559330000e-6
4.880946    1.925333    399.500    41.23190790000e-6
4.880915    1.925424    425.000    41.36433570000e-6
4.880901    1.925481    447.000    41.48898710000e-6
4.880984    1.925354    468.600    41.63176840000e-6
4.881116    1.925456    494.000    41.75639190000e-6  
